* Sea-Bird SBE 19 Data File:
* FileName =
* Software Version 4.234
* Temperature SN = 2835
* Conductivity SN = 2835
* System UpLoad Time = Wed Jan 19 11:48:56 2005

* S>ds
* SEACAT PROFILER V3.1b-22420 SN 2835   01/19/05  12:53:36.273
* strain gauge pressure sensor: S/N = 193005,  range=500 psia,  tc = 26
* clk = 32768.031   iop = 217   vmain = 12.1   vlith	5.1
* mode = PROFILE  ncasts = 1
* sample rate = 1 scan every 0.5 seconds
* minimum raw conductivity frequency for pump turn on	30	0	hertz
* pump delay = 40 seconds
* samples = 911   free = 86153   lwait = 0 msec
* SW1 = C8   battery cutoff = 7.3 volts
* number of voltages sampled = 4
* logdata = NO
* S>cast 0  01/19  12:45:50   samples 0 to 910 sample	rate	=	1 scan every 0.5 seconds  stop = recv cmd

# nquan = 4
# nvalues = 911                         
# units = specified
# name 0 = t090C: Temperature [ITS-90, deg C]
# name 1 = c0S/m: Conductivity [S/m]
# name 2 = prSM: Pressure, Strain Gauge [db]
# name 3 = flag:  0.000e+00
# span 0 =     7.6099,    11.0981       
# span 1 =   2.246650,   3.473804       
# span 2 =     -0.364,     29.627       
# span 3 = 0.0000e+00, 0.0000e+00       
# interval = seconds: 0.5
# start_time = Aug 16 2022 12:58:21 [DatCnv date, localtime]
# bad_flag = -9.990e-29
# <Sensors count="7" >
#   <sensor Channel="1" >
#     <!-- Frequency 0, Temperature -->
#     <TemperatureSensor SensorID="55" >
#       <SerialNumber>2835</SerialNumber>
#       <CalibrationDate>16-JUN-04</CalibrationDate>
#       <UseG_J>1</UseG_J>
#       <A>4.21059973e-003</A>
#       <B>5.97017997e-004</B>
#       <C>3.08092908e+004</C>
#       <D>-1.85656400e-006</D>
#       <F0_Old>1000.000</F0_Old>
#       <G>4.21128850e-003</G>
#       <H>5.98809978e-004</H>
#       <I>5.39242925e-006</I>
#       <J>-1.40400219e-006</J>
#       <F0>1000.000</F0>
#       <Slope>1.00000000</Slope>
#       <Offset>0.0000</Offset>
#     </TemperatureSensor>
#   </sensor>
#   <sensor Channel="2" >
#     <!-- Frequency 1, Conductivity -->
#     <ConductivitySensor SensorID="3" >
#       <SerialNumber>2835</SerialNumber>
#       <CalibrationDate>16-JUN-04</CalibrationDate>
#       <UseG_J>1</UseG_J>
#       <!-- Cell const and series R are applicable only for wide range sensors. -->
#       <SeriesR>0.0000</SeriesR>
#       <CellConst>2000.0000</CellConst>
#       <ConductivityType>0</ConductivityType>
#       <Coefficients equation="0" >
#         <A>2.54548835e-008</A>
#         <B>4.93652809e-001</B>
#         <C>-4.21879011e+000</C>
#         <D>1.96479819e-004</D>
#         <M>6.6</M>
#         <CPcor>-9.57000000e-008</CPcor>
#       </Coefficients>
#       <Coefficients equation="1" >
#         <G>-4.00753104e+000</G>
#         <H>4.78066977e-001</H>
#         <I>1.21247275e-003</I>
#         <J>-3.18226763e-005</J>
#         <CPcor>-9.57000000e-008</CPcor>
#         <CTcor>3.2500e-006</CTcor>
#         <!-- WBOTC not applicable unless ConductivityType = 1. -->
#         <WBOTC>0.00000000e+000</WBOTC>
#       </Coefficients>
#       <Slope>1.00000000</Slope>
#       <Offset>0.00000</Offset>
#     </ConductivitySensor>
#   </sensor>
#   <sensor Channel="3" >
#     <!-- A/D voltage 0, Oxygen, SBE 43 -->
#     <OxygenSensor SensorID="38" >
#       <SerialNumber>0015</SerialNumber>
#       <CalibrationDate>02-May-03</CalibrationDate>
#       <Use2007Equation>0</Use2007Equation>
#       <CalibrationCoefficients equation="0" >
#         <!-- Coefficients for Owens-Millard equation. -->
#         <Boc>0.0000</Boc>
#         <Soc>3.4660e-001</Soc>
#         <offset>-0.6215</offset>
#         <Pcor>1.35e-004</Pcor>
#         <Tcor>0.0014</Tcor>
#         <Tau>0.0</Tau>
#       </CalibrationCoefficients>
#       <CalibrationCoefficients equation="1" >
#         <!-- Coefficients for Sea-Bird equation - SBE calibration in 2007 and later. -->
#         <Soc>0.0000e+000</Soc>
#         <offset> 0.0000</offset>
#         <A> 0.0000e+000</A>
#         <B> 0.0000e+000</B>
#         <C> 0.0000e+000</C>
#         <D0> 2.5826e+000</D0>
#         <D1> 1.92634e-004</D1>
#         <D2>-4.64803e-002</D2>
#         <E> 0.0000e+000</E>
#         <Tau20> 0.0000</Tau20>
#         <H1>-3.3000e-002</H1>
#         <H2> 5.0000e+003</H2>
#         <H3> 1.4500e+003</H3>
#       </CalibrationCoefficients>
#     </OxygenSensor>
#   </sensor>
#   <sensor Channel="4" >
#     <!-- A/D voltage 1, Transmissometer, Chelsea/Seatech -->
#     <TransChelseaSeatechWetlabCStarSensor SensorID="59" >
#       <SerialNumber>CST-306PR</SerialNumber>
#       <CalibrationDate>21 Mar 00</CalibrationDate>
#       <M>20.7680</M>
#       <B>-1.8480</B>
#       <PathLength>0.100</PathLength>
#     </TransChelseaSeatechWetlabCStarSensor>
#   </sensor>
#   <sensor Channel="5" >
#     <!-- A/D voltage 2, Fluorometer, WET Labs WETstar -->
#     <FluoroWetlabWetstarSensor SensorID="21" >
#       <SerialNumber>WS3S-668P</SerialNumber>
#       <CalibrationDate>05 Nov 99</CalibrationDate>
#       <ScaleFactor>16.920</ScaleFactor>
#       <!-- Blank output -->
#       <Vblank>0.068</Vblank>
#     </FluoroWetlabWetstarSensor>
#   </sensor>
#   <sensor Channel="6" >
#     <!-- A/D voltage 3, Free -->
#   </sensor>
#   <sensor Channel="7" >
#     <!-- Pressure voltage, Pressure, Strain Gauge -->
#     <PressureSensor SensorID="49" >
#       <SerialNumber></SerialNumber>
#       <CalibrationDate></CalibrationDate>
#       <A0>2.484202e+002</A0>
#       <A1>-6.524145e-002</A1>
#       <A2>5.500284e-008</A2>
#       <Offset>0.00000</Offset>
#     </PressureSensor>
#   </sensor>
# </Sensors>
# datcnv_date = Aug 16 2022 12:58:21, 7.26.7.129 [datcnv_vars = 3]
# datcnv_in = C:\seabirdscientific\tests\resources\test-data\CAST0002.HEX C:\seabirdscientific\tests\resources\test-data\testing.CON
# datcnv_skipover = 0
# filter_date = Aug 16 2022 13:12:13, 7.26.7.129
# filter_in = C:\seabirdscientific\tests\resources\test-data\CAST0002_mod.cnv
# filter_low_pass_tc_A = 2.000
# filter_low_pass_tc_B = 200.000
# filter_low_pass_A_vars = prSM
# filter_low_pass_B_vars =
# loopedit_date = Aug 16 2022 13:19:24, 7.26.7.129
# loopedit_in = C:\seabirdscientific\tests\resources\test-data\CAST0002_mod_filt.cnv
# loopedit_minVelocity = 0.100                                                                                            
# loopedit_surfaceSoak: minDepth = 5.0, maxDepth = 20, useDeckPress = 0                                                   
# loopedit_excl_bad_scans = no
# loopedit_date = Aug 16 2022 13:23:42, 7.26.7.129
# loopedit_in = C:\seabirdscientific\tests\resources\test-data\CAST0002_mod_filt_loop_min_v_remove_soak.cnv
# loopedit_minVelocity = 0.100                                                                                            
# loopedit_surfaceSoak: do not remove                                                                                     
# loopedit_excl_bad_scans = yes
# file_type = ascii
*END*
    11.0560   3.445353      3.853 -9.990e-29
    11.0597   3.444866      3.842 -9.990e-29
    11.0679   3.444379      3.827 -9.990e-29
    11.0661   3.445028      3.807 -9.990e-29
    11.0618   3.445082      3.780 -9.990e-29
    11.0575   3.445145      3.743 -9.990e-29
    11.0532   3.445218      3.693 -9.990e-29
    11.0606   3.445069      3.628 -9.990e-29
    11.0642   3.445083      3.544 -9.990e-29
    11.0652   3.445096      3.437 -9.990e-29
    11.0642   3.444948      3.316 -9.990e-29
    11.0652   3.445286      3.204 -9.990e-29
    11.0642   3.445137      3.110 -9.990e-29
    11.0642   3.445151      3.026 -9.990e-29
    11.0633   3.445327      2.949 -9.990e-29
    11.0652   3.444205      2.873 -9.990e-29
    11.0652   3.444705      2.794 -9.990e-29
    11.0652   3.444719      2.705 -9.990e-29
    11.0652   3.445219      2.603 -9.990e-29
    11.0661   3.444908      2.482 -9.990e-29
    11.0633   3.445571      2.349 -9.990e-29
    11.0652   3.446396      2.226 -9.990e-29
    11.0606   3.445436      2.123 -9.990e-29
    11.0652   3.444801      2.034 -9.990e-29
    11.0642   3.445301      1.951 -9.990e-29
    11.0633   3.446288      1.870 -9.990e-29
    11.0606   3.445328      1.786 -9.990e-29
    11.0633   3.446478      1.694 -9.990e-29
    11.0615   3.446816      1.587 -9.990e-29
    11.0587   3.446992      1.460 -9.990e-29
    11.0606   3.445383      1.320 -9.990e-29
    11.0624   3.446857      1.190 -9.990e-29
    11.0578   3.446059      1.078 -9.990e-29
    11.0606   3.445748      0.975 -9.990e-29
    11.0606   3.445600      0.876 -9.990e-29
    11.0578   3.445938      0.774 -9.990e-29
    11.0587   3.446438      0.664 -9.990e-29
    11.0606   3.445965      0.540 -9.990e-29
    11.0661   3.445330      0.393 -9.990e-29
    11.0670   3.444695      0.213 -9.990e-29
    11.0651   3.445520      0.019 -9.990e-29
    11.0633   3.445695     -0.144 -9.990e-29
    11.0615   3.445709     -0.257 -9.990e-29
    11.0624   3.445723     -0.330 -9.990e-29
    11.0615   3.446710     -0.364 -9.990e-29
    11.0606   3.446399     -0.364 -9.990e-29
    11.0615   3.446737     -0.328 -9.990e-29
    11.0615   3.447075     -0.256 -9.990e-29
    11.0615   3.447089     -0.143 -9.990e-29
    11.0587   3.446616      0.018 -9.990e-29
    11.0578   3.447278      0.209 -9.990e-29
    11.0578   3.446157      0.387 -9.990e-29
    11.0596   3.446332      0.532 -9.990e-29
    11.0615   3.446022      0.655 -9.990e-29
    11.0651   3.445386      0.763 -9.990e-29
    11.0661   3.445562      0.864 -9.990e-29
    11.0660   3.446225      0.963 -9.990e-29
    11.0660   3.446076      1.066 -9.990e-29
    11.0624   3.445441      1.179 -9.990e-29
    11.0633   3.446428      1.307 -9.990e-29
    11.0596   3.446766      1.446 -9.990e-29
    11.0605   3.445969      1.570 -9.990e-29
    11.0605   3.446144      1.674 -9.990e-29
    11.0615   3.447456      1.764 -9.990e-29
    11.0587   3.447632      1.847 -9.990e-29
    11.0560   3.447483      1.927 -9.990e-29
    11.0550   3.447010      2.009 -9.990e-29
    11.0596   3.446699      2.100 -9.990e-29
    11.0587   3.446551      2.204 -9.990e-29
    11.0569   3.446565      2.327 -9.990e-29
    11.0615   3.445929      2.463 -9.990e-29
    11.0642   3.445943      2.588 -9.990e-29
    11.0633   3.446606      2.694 -9.990e-29
    11.0651   3.446457      2.784 -9.990e-29
    11.0651   3.445822      2.867 -9.990e-29
    11.0642   3.445835      2.946 -9.990e-29
    11.0615   3.446498      3.028 -9.990e-29
    11.0615   3.446187      3.116 -9.990e-29
    11.0605   3.447174      3.218 -9.990e-29
    11.0596   3.447512      3.340 -9.990e-29
    11.0596   3.447851      3.474 -9.990e-29
    11.0560   3.448027      3.596 -9.990e-29
    11.0596   3.446580      3.698 -9.990e-29
    11.0605   3.447567      3.787 -9.990e-29
    11.0587   3.428598      3.870 -9.990e-29
    11.0981   3.443376      3.952 -9.990e-29
    11.0688   3.438847      4.035 -9.990e-29
    11.0651   3.438860      4.125 -9.990e-29
    11.0642   3.438549      4.227 -9.990e-29
    11.0669   3.438401      4.348 -9.990e-29
    11.0706   3.437928      4.480 -9.990e-29
    11.0715   3.437455      4.601 -9.990e-29
    11.0697   3.438928      4.702 -9.990e-29
    11.0660   3.438455      4.791 -9.990e-29
    11.0642   3.438631      4.872 -9.990e-29
    11.0651   3.438969      4.950 -9.990e-29
    11.0633   3.439470      5.031 -9.990e-29
    11.0624   3.440132      5.120 -9.990e-29
    11.0605   3.439822      5.221 -9.990e-29
    11.0642   3.440484      5.341 -9.990e-29
    11.0633   3.440173      5.471 -9.990e-29
    11.0578   3.439538      5.591 -9.990e-29
    11.0605   3.439389      5.691 -9.990e-29
    11.0624   3.439241      5.779 -9.990e-29
    11.0596   3.439417      5.860 -9.990e-29
    11.0614   3.439430      5.937 -9.990e-29
    11.0651   3.439768      6.017 -9.990e-29
    11.0633   3.439295      6.105 -9.990e-29
    11.0669   3.438011      6.207 -9.990e-29
    11.0679   3.438836      6.330 -9.990e-29
    11.0651   3.438849      6.463 -9.990e-29
    11.0633   3.438701      6.585 -9.990e-29
    11.0633   3.439850      6.686 -9.990e-29
    11.0614   3.440351      6.775 -9.990e-29
    11.0587   3.439715      6.856 -9.990e-29
    11.0642   3.441027      6.934 -9.990e-29
    11.0596   3.441365      7.014 -9.990e-29
    11.0596   3.440892      7.102 -9.990e-29
    11.0559   3.440743      7.203 -9.990e-29
    11.0559   3.440270      7.325 -9.990e-29
    11.0587   3.441582      7.459 -9.990e-29
    11.0568   3.440784      7.581 -9.990e-29
    11.0623   3.440149      7.684 -9.990e-29
    11.0651   3.439676      7.773 -9.990e-29
    11.0626   3.440059      7.856 -9.990e-29
    11.0602   3.440444      7.936 -9.990e-29
    11.0578   3.440832      8.017 -9.990e-29
    11.0569   3.439538      8.104 -9.990e-29
    11.0633   3.441002      8.205 -9.990e-29
    11.0615   3.441492      8.325 -9.990e-29
    11.0579   3.440035      8.458 -9.990e-29
    11.0615   3.440364      8.579 -9.990e-29
    11.0579   3.441665      8.680 -9.990e-29
    11.0588   3.441831      8.769 -9.990e-29
    11.0543   3.441673      8.850 -9.990e-29
    11.0579   3.441027      8.928 -9.990e-29
    11.0589   3.441031      9.009 -9.990e-29
    11.0580   3.440872      9.098 -9.990e-29
    11.0562   3.440876      9.200 -9.990e-29
    11.0608   3.440717      9.323 -9.990e-29
    11.0626   3.440234      9.457 -9.990e-29
    11.0617   3.441049      9.579 -9.990e-29
    11.0636   3.440890      9.682 -9.990e-29
    11.0636   3.440731      9.772 -9.990e-29
    11.0608   3.440086      9.852 -9.990e-29
    11.0609   3.440252      9.930 -9.990e-29
    11.0572   3.440418     10.010 -9.990e-29
    11.0581   3.440421     10.099 -9.990e-29
    11.0591   3.441074     10.200 -9.990e-29
    11.0573   3.441889     10.322 -9.990e-29
    11.0591   3.440270     10.455 -9.990e-29
    11.0573   3.440923     10.577 -9.990e-29
    11.0601   3.441251     10.679 -9.990e-29
    11.0592   3.440930     10.768 -9.990e-29
    11.0573   3.440933     10.849 -9.990e-29
    11.0610   3.441424     10.928 -9.990e-29
    11.0555   3.439805     11.010 -9.990e-29
    11.0583   3.441431     11.099 -9.990e-29
    11.0620   3.440623     11.202 -9.990e-29
    11.0629   3.440465     11.325 -9.990e-29
    11.0602   3.440631     11.459 -9.990e-29
    11.0630   3.440472     11.583 -9.990e-29
    11.0602   3.441125     11.687 -9.990e-29
    11.0566   3.441128     11.777 -9.990e-29
    11.0566   3.440158     11.859 -9.990e-29
    11.0603   3.440811     11.937 -9.990e-29
    11.0585   3.441301     12.017 -9.990e-29
    11.0594   3.442279     12.105 -9.990e-29
    11.0548   3.442120     12.207 -9.990e-29
    11.0512   3.441961     12.330 -9.990e-29
    11.0530   3.441316     12.464 -9.990e-29
    11.0567   3.441319     12.585 -9.990e-29
    11.0576   3.440674     12.687 -9.990e-29
    11.0567   3.440840     12.776 -9.990e-29
    11.0604   3.440357     12.858 -9.990e-29
    11.0641   3.440036     12.938 -9.990e-29
    11.0651   3.441013     13.019 -9.990e-29
    11.0596   3.440367     13.105 -9.990e-29
    11.0605   3.440046     13.205 -9.990e-29
    11.0624   3.440375     13.326 -9.990e-29
    11.0596   3.441027     13.458 -9.990e-29
    11.0606   3.440382     13.579 -9.990e-29
    11.0606   3.440385     13.681 -9.990e-29
    11.0588   3.442336     13.769 -9.990e-29
    11.0579   3.442178     13.850 -9.990e-29
    11.0551   3.442506     13.928 -9.990e-29
    11.0515   3.441698     14.009 -9.990e-29
    11.0570   3.442026     14.098 -9.990e-29
    11.0570   3.441543     14.200 -9.990e-29
    11.0543   3.441384     14.322 -9.990e-29
    11.0598   3.440901     14.456 -9.990e-29
    11.0552   3.441392     14.578 -9.990e-29
    11.0580   3.441558     14.681 -9.990e-29
    11.0617   3.441399     14.770 -9.990e-29
    11.0654   3.440591     14.853 -9.990e-29
    11.0663   3.439783     14.932 -9.990e-29
    11.0617   3.440598     15.012 -9.990e-29
    11.0572   3.440764     15.100 -9.990e-29
    11.0599   3.440605     15.202 -9.990e-29
    11.0590   3.441583     15.324 -9.990e-29
    11.0581   3.442073     15.457 -9.990e-29
    11.0563   3.442077     15.579 -9.990e-29
    11.0582   3.441431     15.682 -9.990e-29
    11.0573   3.442571     15.771 -9.990e-29
    11.0609   3.442088     15.853 -9.990e-29
    11.0564   3.441118     15.933 -9.990e-29
    11.0573   3.441284     16.016 -9.990e-29
    11.0564   3.441936     16.106 -9.990e-29
    11.0528   3.441940     16.209 -9.990e-29
    11.0546   3.441781     16.331 -9.990e-29
    11.0610   3.441136     16.465 -9.990e-29
    11.0647   3.440166     16.587 -9.990e-29
    11.0638   3.441143     16.689 -9.990e-29
    11.0620   3.441146     16.778 -9.990e-29
    11.0611   3.440988     16.858 -9.990e-29
    11.0593   3.441316     16.936 -9.990e-29
    11.0593   3.441969     17.017 -9.990e-29
    11.0575   3.442622     17.105 -9.990e-29
    11.0575   3.442301     17.206 -9.990e-29
    11.0548   3.442304     17.326 -9.990e-29
    11.0566   3.442632     17.459 -9.990e-29
    11.0539   3.441987     17.579 -9.990e-29
    11.0530   3.441504     17.679 -9.990e-29
    11.0567   3.442319     17.764 -9.990e-29
    11.0558   3.441673     17.842 -9.990e-29
    11.0558   3.441677     17.917 -9.990e-29
    11.0613   3.441680     17.994 -9.990e-29
    11.0622   3.440710     18.078 -9.990e-29
    11.0613   3.440227     18.174 -9.990e-29
    11.0659   3.441529     18.288 -9.990e-29
    11.0614   3.441370     18.411 -9.990e-29
    11.0614   3.440400     18.518 -9.990e-29
    11.0605   3.441540     18.601 -9.990e-29
    11.0559   3.442355     18.665 -9.990e-29
    11.0578   3.441222     18.716 -9.990e-29
    11.0578   3.441875     18.756 -9.990e-29
    11.0560   3.443177     18.787 -9.990e-29
    11.0569   3.443343     18.812 -9.990e-29
    11.0514   3.442211     18.833 -9.990e-29
    11.0524   3.442539     18.850 -9.990e-29
    11.0551   3.441569     18.864 -9.990e-29
    11.0561   3.441897     18.874 -9.990e-29
    11.0588   3.441738     18.881 -9.990e-29
    11.0598   3.441417     18.887 -9.990e-29
    11.0634   3.441418     18.891 -9.990e-29
    11.0671   3.441416     18.894 -9.990e-29
    11.0708   3.441412     18.895 -9.990e-29
    11.0533   3.441894     18.895 -9.990e-29
    11.0625   3.441727     18.895 -9.990e-29
    11.0597   3.442047     18.895 -9.990e-29
    11.0615   3.441880     18.895 -9.990e-29
    11.0588   3.441551     18.896 -9.990e-29
    11.0578   3.441871     18.898 -9.990e-29
    11.0597   3.441704     18.900 -9.990e-29
    11.0596   3.441862     18.900 -9.990e-29
    11.0596   3.441208     18.900 -9.990e-29
    11.0605   3.441366     18.899 -9.990e-29
    11.0541   3.443147     18.898 -9.990e-29
    11.0568   3.442006     18.897 -9.990e-29
    11.0541   3.442002     18.895 -9.990e-29
    11.0522   3.441835     18.894 -9.990e-29
    11.0577   3.441830     18.894 -9.990e-29
    11.0623   3.440527     18.894 -9.990e-29
    11.0641   3.441496     18.894 -9.990e-29
    11.0632   3.441492     18.894 -9.990e-29
    11.0595   3.441812     18.894 -9.990e-29
    11.0576   3.441158     18.892 -9.990e-29
    11.0558   3.441965     18.892 -9.990e-29
    11.0585   3.441636     18.891 -9.990e-29
    11.0567   3.441794     18.891 -9.990e-29
    11.0576   3.441951     18.892 -9.990e-29
    11.0576   3.443083     18.892 -9.990e-29
    11.0539   3.442916     18.893 -9.990e-29
    11.0520   3.442425     18.893 -9.990e-29
    11.0557   3.441771     18.892 -9.990e-29
    11.0511   3.441929     18.889 -9.990e-29
    11.0538   3.441762     18.886 -9.990e-29
    11.0566   3.441919     18.882 -9.990e-29
    11.0602   3.440779     18.878 -9.990e-29
    11.0620   3.441586     18.874 -9.990e-29
    11.0593   3.441581     18.868 -9.990e-29
    11.0620   3.441577     18.862 -9.990e-29
    11.0602   3.440761     18.853 -9.990e-29
    11.0592   3.441567     18.842 -9.990e-29
    11.0565   3.441563     18.827 -9.990e-29
    11.0601   3.441396     18.808 -9.990e-29
    11.0592   3.442365     18.783 -9.990e-29
    11.0592   3.458102     18.751 -9.990e-29
    11.0463   3.437975     18.709 -9.990e-29
    11.0527   3.440891     18.657 -9.990e-29
    11.0527   3.441049     18.595 -9.990e-29
    11.0564   3.440395     18.526 -9.990e-29
    11.0527   3.441689     18.452 -9.990e-29
    11.0509   3.441359     18.372 -9.990e-29
    11.0518   3.441517     18.289 -9.990e-29
    11.0527   3.441026     18.201 -9.990e-29
    11.0526   3.441021     18.111 -9.990e-29
    11.0517   3.441666     18.018 -9.990e-29
    11.0508   3.441012     17.925 -9.990e-29
    11.0517   3.441656     17.830 -9.990e-29
    11.0517   3.441327     17.734 -9.990e-29
    11.0517   3.440511     17.635 -9.990e-29
    11.0526   3.440344     17.535 -9.990e-29
    11.0525   3.441151     17.436 -9.990e-29
    11.0516   3.440335     17.338 -9.990e-29
    11.0516   3.440168     17.242 -9.990e-29
    11.0516   3.440002     17.146 -9.990e-29
    11.0497   3.439997     17.051 -9.990e-29
    11.0516   3.439830     16.956 -9.990e-29
    11.0506   3.439663     16.860 -9.990e-29
    11.0497   3.439659     16.763 -9.990e-29
    11.0506   3.439654     16.668 -9.990e-29
    11.0497   3.440299     16.574 -9.990e-29
    11.0487   3.440132     16.481 -9.990e-29
    11.0496   3.438342     16.387 -9.990e-29
    11.0505   3.439311     16.293 -9.990e-29
    11.0487   3.438982     16.198 -9.990e-29
    11.0487   3.439464     16.103 -9.990e-29
    11.0505   3.439460     16.007 -9.990e-29
    11.0514   3.439617     15.911 -9.990e-29
    11.0514   3.439126     15.815 -9.990e-29
    11.0459   3.438472     15.721 -9.990e-29
    11.0495   3.437981     15.627 -9.990e-29
    11.0504   3.437652     15.533 -9.990e-29
    11.0495   3.437647     15.440 -9.990e-29
    11.0495   3.437967     15.347 -9.990e-29
    11.0504   3.437638     15.253 -9.990e-29
    11.0495   3.437958     15.158 -9.990e-29
    11.0485   3.438278     15.064 -9.990e-29
    11.0504   3.437462     14.969 -9.990e-29
    11.0503   3.438269     14.875 -9.990e-29
    11.0512   3.437290     14.779 -9.990e-29
    11.0466   3.438260     14.681 -9.990e-29
    11.0485   3.437768     14.585 -9.990e-29
    11.0466   3.439062     14.491 -9.990e-29
    11.0475   3.437759     14.398 -9.990e-29
    11.0484   3.437917     14.308 -9.990e-29
    11.0493   3.437425     14.219 -9.990e-29
    11.0493   3.438232     14.131 -9.990e-29
    11.0475   3.437741     14.043 -9.990e-29
    11.0475   3.437249     13.955 -9.990e-29
    11.0484   3.437407     13.866 -9.990e-29
    11.0483   3.437727     13.777 -9.990e-29
    11.0465   3.437073     13.688 -9.990e-29
    11.0483   3.437231     13.599 -9.990e-29
    11.0501   3.435604     13.511 -9.990e-29
    11.0520   3.435599     13.423 -9.990e-29
    11.0547   3.434621     13.334 -9.990e-29
    11.0556   3.434616     13.245 -9.990e-29
    11.0556   3.433638     13.155 -9.990e-29
    11.0537   3.433633     13.065 -9.990e-29
    11.0546   3.433629     12.975 -9.990e-29
    11.0528   3.433949     12.884 -9.990e-29
    11.0546   3.433782     12.793 -9.990e-29
    11.0528   3.433291     12.701 -9.990e-29
    11.0537   3.433935     12.609 -9.990e-29
    11.0518   3.433444     12.515 -9.990e-29
    11.0546   3.433926     12.421 -9.990e-29
    11.0509   3.433110     12.325 -9.990e-29
    11.0509   3.432456     12.227 -9.990e-29
    11.0499   3.432452     12.129 -9.990e-29
    11.0508   3.430987     12.029 -9.990e-29
    11.0481   3.431307     11.928 -9.990e-29
    11.0462   3.431140     11.825 -9.990e-29
    11.0468   3.430922     11.723 -9.990e-29
    11.0474   3.430707     11.623 -9.990e-29
    11.0481   3.430495     11.521 -9.990e-29
    11.0536   3.430499     11.419 -9.990e-29
    11.0462   3.429205     11.317 -9.990e-29
    11.0444   3.429372     11.217 -9.990e-29
    11.0463   3.430025     11.118 -9.990e-29
    11.0435   3.429218     11.019 -9.990e-29
    11.0454   3.429384     10.919 -9.990e-29
    11.0472   3.430200     10.819 -9.990e-29
    11.0454   3.429717     10.719 -9.990e-29
    11.0472   3.428748     10.619 -9.990e-29
    11.0472   3.429239     10.519 -9.990e-29
    11.0445   3.428594     10.419 -9.990e-29
    11.0454   3.428436     10.319 -9.990e-29
    11.0454   3.429414     10.219 -9.990e-29
    11.0418   3.429256     10.120 -9.990e-29
    11.0436   3.428449     10.021 -9.990e-29
    11.0427   3.427641      9.921 -9.990e-29
    11.0409   3.426672      9.821 -9.990e-29
    11.0381   3.427001      9.719 -9.990e-29
    11.0372   3.427005      9.617 -9.990e-29
    11.0363   3.427821      9.514 -9.990e-29
    11.0354   3.427500      9.410 -9.990e-29
    11.0364   3.426206      9.306 -9.990e-29
    11.0336   3.425724      9.202 -9.990e-29
    11.0327   3.425241      9.097 -9.990e-29
    11.0309   3.424596      8.990 -9.990e-29
    11.0318   3.425087      8.884 -9.990e-29
    11.0318   3.424443      8.779 -9.990e-29
    11.0282   3.424934      8.675 -9.990e-29
    11.0282   3.422828      8.572 -9.990e-29
    11.0263   3.422995      8.470 -9.990e-29
    11.0199   3.421701      8.370 -9.990e-29
    11.0227   3.420894      8.271 -9.990e-29
    11.0190   3.420898      8.172 -9.990e-29
    11.0126   3.420740      8.074 -9.990e-29
    11.0181   3.421393      7.976 -9.990e-29
    11.0163   3.420586      7.879 -9.990e-29
    11.0172   3.420428      7.782 -9.990e-29
    11.0145   3.419783      7.684 -9.990e-29
    11.0173   3.419463      7.587 -9.990e-29
    11.0127   3.419629      7.489 -9.990e-29
    11.0109   3.418335      7.392 -9.990e-29
    11.0081   3.418664      7.294 -9.990e-29
    11.0100   3.418344      7.196 -9.990e-29
    11.0054   3.417374      7.097 -9.990e-29
    11.0063   3.416892      6.996 -9.990e-29
    11.0063   3.414300      6.896 -9.990e-29
    11.0045   3.413006      6.796 -9.990e-29
    10.9990   3.411874      6.694 -9.990e-29
    10.9944   3.411229      6.592 -9.990e-29
    10.9907   3.410585      6.490 -9.990e-29
    10.9880   3.408479      6.387 -9.990e-29
    10.9816   3.405400      6.283 -9.990e-29
    10.9798   3.405891      6.176 -9.990e-29
    10.9706   3.405084      6.066 -9.990e-29
    10.9697   3.403466      5.958 -9.990e-29
    10.9642   3.403632      5.852 -9.990e-29
    10.9651   3.402988      5.748 -9.990e-29
    10.9651   3.403154      5.645 -9.990e-29
    10.9651   3.402347      5.541 -9.990e-29
    10.9642   3.401864      5.438 -9.990e-29
    10.9651   3.402842      5.334 -9.990e-29
    10.9596   3.400737      5.231 -9.990e-29
    10.9597   3.397982      5.128 -9.990e-29
    10.9505   3.396039      5.025 -9.990e-29
    10.9450   3.392636      4.922 -9.990e-29
    10.9367   3.389070      4.819 -9.990e-29
    10.9257   3.379177      4.715 -9.990e-29
    10.9009   3.375287      4.610 -9.990e-29
    10.8687   3.356307      4.506 -9.990e-29
    10.8080   3.348848      4.400 -9.990e-29
    10.7730   3.343498      4.295 -9.990e-29
    10.7519   3.334741      4.188 -9.990e-29
    10.7150   3.328093      4.081 -9.990e-29
    10.6809   3.314955      3.973 -9.990e-29
    10.6339   3.299871      3.864 -9.990e-29
    10.5701   3.295333      3.756 -9.990e-29
    10.5434   3.288037      3.646 -9.990e-29
    10.5175   3.269708      3.535 -9.990e-29
    10.4018   3.233860      3.423 -9.990e-29
    10.2618   3.205802      3.309 -9.990e-29
    10.1550   3.187314      3.195 -9.990e-29
    10.0368   3.153904      3.083 -9.990e-29
     9.8941   3.109306      2.973 -9.990e-29
     9.6182   2.999358      2.865 -9.990e-29
     9.2534   2.855551      2.758 -9.990e-29
     8.7812   2.787800      2.652 -9.990e-29
     8.5424   2.804826      2.547 -9.990e-29
     8.5586   2.793969      2.443 -9.990e-29
     8.5558   2.804832      2.340 -9.990e-29
     8.5805   2.832717      2.240 -9.990e-29
     8.6472   2.799003      2.143 -9.990e-29
     8.6434   2.755891      2.049 -9.990e-29
     8.5386   2.693498      1.957 -9.990e-29
     8.3878   2.649748      1.867 -9.990e-29
     8.2463   2.539736      1.779 -9.990e-29
     8.0343   2.443356      1.692 -9.990e-29
     7.8004   2.400926      1.607 -9.990e-29
     7.7048   2.381982      1.525 -9.990e-29
     7.6700   2.354292      1.448 -9.990e-29
     7.6865   2.328709      1.376 -9.990e-29
     7.7261   2.317377      1.310 -9.990e-29
     7.7647   2.297301      1.254 -9.990e-29
     7.8100   2.295037      1.207 -9.990e-29
     7.8168   2.296983      1.170 -9.990e-29
     7.8110   2.313340      1.142 -9.990e-29
     7.7898   2.308971      1.119 -9.990e-29
     7.8053   2.280314      1.102 -9.990e-29
     7.8650   2.275621      1.089 -9.990e-29
     7.8872   2.270767      1.078 -9.990e-29
     7.9103   2.256198      1.071 -9.990e-29
     7.9353   2.258143      1.065 -9.990e-29
     7.9401   2.263489      1.060 -9.990e-29
     7.9305   2.261387      1.057 -9.990e-29
     7.9305   2.261228      1.054 -9.990e-29
     7.9392   2.252326      1.053 -9.990e-29
     7.9556   2.251843      1.052 -9.990e-29
     7.9575   2.250875      1.052 -9.990e-29
     7.9585   2.250822      1.053 -9.990e-29
     7.9594   2.250766      1.053 -9.990e-29
     7.9604   2.250709      1.053 -9.990e-29
     7.9575   2.248925      1.051 -9.990e-29
     7.9632   2.247951      1.049 -9.990e-29
     7.9613   2.247300      1.047 -9.990e-29
     7.9680   2.246650      1.046 -9.990e-29
     7.9671   2.247456      1.046 -9.990e-29
     7.9622   2.251986      1.045 -9.990e-29
     7.9526   2.251497      1.045 -9.990e-29
     7.9497   2.250685      1.045 -9.990e-29
     7.9545   2.248415      1.045 -9.990e-29
     7.9584   2.247765      1.046 -9.990e-29
     7.9584   2.247923      1.047 -9.990e-29
     7.9603   2.248568      1.048 -9.990e-29
     7.9564   2.252774      1.051 -9.990e-29
     7.9410   2.252771      1.055 -9.990e-29
     7.9429   2.250987      1.061 -9.990e-29
     7.9487   2.248394      1.069 -9.990e-29
     7.9525   2.247581      1.078 -9.990e-29
     7.9593   2.247254      1.089 -9.990e-29
     7.9631   2.247089      1.104 -9.990e-29
     7.9631   2.247086      1.122 -9.990e-29
     7.9612   2.247569      1.146 -9.990e-29
     7.9621   2.248213      1.176 -9.990e-29
     7.9583   2.248210      1.215 -9.990e-29
     7.9496   2.252417      1.265 -9.990e-29
     7.9457   2.248043      1.327 0.0000e+00
     7.9428   2.253544      1.400 0.0000e+00
     7.9207   2.273455      1.481 0.0000e+00
     7.8619   2.272481      1.569 0.0000e+00
     7.8581   2.281059      1.664 0.0000e+00
     7.8320   2.313115      1.764 0.0000e+00
     7.7346   2.330762      1.869 0.0000e+00
     7.6709   2.326226      1.979 0.0000e+00
     7.6593   2.340472      2.091 0.0000e+00
     7.6293   2.352290      2.206 0.0000e+00
     7.6167   2.371072      2.323 0.0000e+00
     7.6099   2.388721      2.444 0.0000e+00
     7.6205   2.430502      2.567 0.0000e+00
     7.6466   2.497557      2.694 0.0000e+00
     7.6843   2.572884      2.825 0.0000e+00
     7.7722   2.590216      2.959 0.0000e+00
     7.8560   2.676739      3.096 0.0000e+00
     8.0974   2.803961      3.235 0.0000e+00
     8.4382   2.945806      3.376 0.0000e+00
     8.9101   3.048927      3.516 0.0000e+00
     9.3474   3.098221      3.655 0.0000e+00
     9.5682   3.119623      3.792 0.0000e+00
     9.7051   3.136972      3.927 0.0000e+00
     9.8005   3.151889      4.062 0.0000e+00
     9.8846   3.170213      4.195 0.0000e+00
     9.9956   3.203785      4.327 0.0000e+00
    10.1064   3.215459      4.458 0.0000e+00
    10.1808   3.236704      4.588 0.0000e+00
    10.3089   3.269631      4.718 0.0000e+00
    10.4303   3.281468      4.846 0.0000e+00
    10.4978   3.304501      4.974 0.0000e+00
    10.5958   3.329481      5.102 0.0000e+00
    10.6954   3.349756      5.229 0.0000e+00
    10.7774   3.359486      5.355 0.0000e+00
    10.8289   3.368730      5.481 0.0000e+00
    10.8657   3.349903      5.606 0.0000e+00
    10.8427   3.374724      5.733 0.0000e+00
    10.8832   3.357195      5.862 0.0000e+00
    10.8491   3.385100      5.993 0.0000e+00
    10.8970   3.389800      6.126 0.0000e+00
    10.9172   3.387686      6.257 0.0000e+00
    10.9254   3.392874      6.387 0.0000e+00
    10.9328   3.393680      6.514 0.0000e+00
    10.9355   3.395136      6.640 0.0000e+00
    10.9392   3.394807      6.764 0.0000e+00
    10.9401   3.398697      6.887 0.0000e+00
    10.9538   3.401613      7.010 0.0000e+00
    10.9603   3.395280      7.132 0.0000e+00
    10.9566   3.405823      7.254 0.0000e+00
    10.9740   3.408576      7.376 0.0000e+00
    10.9813   3.409708      7.497 0.0000e+00
    10.9841   3.411163      7.619 0.0000e+00
    10.9887   3.412132      7.741 0.0000e+00
    10.9914   3.413264      7.863 0.0000e+00
    10.9932   3.414233      7.985 0.0000e+00
    10.9960   3.414228      8.106 0.0000e+00
    10.9960   3.415359      8.229 0.0000e+00
    10.9969   3.415355      8.352 0.0000e+00
    11.0014   3.415188      8.477 0.0000e+00
    11.0014   3.415346      8.604 0.0000e+00
    11.0014   3.415341      8.733 0.0000e+00
    11.0023   3.415661      8.866 0.0000e+00
    11.0005   3.416955      9.001 0.0000e+00
    11.0041   3.417924      9.141 0.0000e+00
    11.0096   3.418406      9.282 0.0000e+00
    11.0096   3.419375      9.424 0.0000e+00
    11.0096   3.419208      9.569 0.0000e+00
    11.0087   3.419204      9.718 0.0000e+00
    11.0133   3.419037      9.872 0.0000e+00
    11.0132   3.420168     10.033 0.0000e+00
    11.0132   3.420650     10.203 0.0000e+00
    11.0160   3.421295     10.383 0.0000e+00
    11.0187   3.422101     10.578 0.0000e+00
    11.0196   3.423233     10.791 0.0000e+00
    11.0242   3.424202     11.030 0.0000e+00
    11.0269   3.424197     11.284 0.0000e+00
    11.0333   3.425328     11.531 0.0000e+00
    11.0343   3.425973     11.761 0.0000e+00
    11.0361   3.426779     11.982 0.0000e+00
    11.0388   3.427099     12.201 0.0000e+00
    11.0379   3.428068     12.426 0.0000e+00
    11.0406   3.427902     12.662 0.0000e+00
    11.0415   3.428059     12.917 0.0000e+00
    11.0415   3.428055     13.183 0.0000e+00
    11.0388   3.428212     13.436 0.0000e+00
    11.0397   3.427883     13.668 0.0000e+00
    11.0387   3.427879     13.887 0.0000e+00
    11.0378   3.428199     14.095 0.0000e+00
    11.0396   3.428194     14.299 0.0000e+00
    11.0405   3.428676     14.506 0.0000e+00
    11.0405   3.428996     14.721 0.0000e+00
    11.0405   3.428829     14.935 0.0000e+00
    11.0414   3.429798     15.124 0.0000e+00
    11.0442   3.430662     15.275 0.0000e+00
    11.0469   3.431527     15.390 0.0000e+00
    11.0497   3.432392     15.469 -9.990e-29
    11.0543   3.432394     15.509 -9.990e-29
    11.0497   3.433206     15.506 -9.990e-29
    11.0524   3.432883     15.455 -9.990e-29
    11.0525   3.433209     15.360 -9.990e-29
    11.0543   3.433210     15.239 -9.990e-29
    11.0516   3.433373     15.095 -9.990e-29
    11.0561   3.434673     14.912 -9.990e-29
    11.0543   3.435161     14.688 -9.990e-29
    11.0562   3.435162     14.449 -9.990e-29
    11.0562   3.434838     14.221 -9.990e-29
    11.0562   3.435813     14.001 -9.990e-29
    11.0516   3.436788     13.782 -9.990e-29
    11.0516   3.436952     13.576 -9.990e-29
    11.0489   3.437115     13.379 -9.990e-29
    11.0516   3.436305     13.170 -9.990e-29
    11.0461   3.437604     12.947 -9.990e-29
    11.0471   3.436957     12.717 -9.990e-29
    11.0452   3.437282     12.488 -9.990e-29
    11.0462   3.436959     12.272 -9.990e-29
    11.0471   3.436960     12.080 -9.990e-29
    11.0434   3.437611     11.925 -9.990e-29
    11.0453   3.437450     11.806 -9.990e-29
    11.0453   3.437451     11.707 -9.990e-29
    11.0462   3.437452     11.630 -9.990e-29
    11.0462   3.437291     11.592 -9.990e-29
    11.0444   3.437779     11.602 -9.990e-29
    11.0453   3.437780     11.652 -9.990e-29
    11.0462   3.437619     11.738 -9.990e-29
    11.0462   3.438107     11.859 -9.990e-29
    11.0462   3.438433     12.015 -9.990e-29
    11.0481   3.438596     12.209 -9.990e-29
    11.0435   3.438760     12.428 -9.990e-29
    11.0490   3.438599     12.646 -9.990e-29
    11.0472   3.439574     12.856 -9.990e-29
    11.0472   3.438764     13.062 -9.990e-29
    11.0472   3.439252     13.270 -9.990e-29
    11.0481   3.439091     13.487 -9.990e-29
    11.0463   3.440228     13.718 -9.990e-29
    11.0472   3.440391     13.972 -9.990e-29
    11.0472   3.440230     14.240 -9.990e-29
    11.0472   3.440394     14.498 -9.990e-29
    11.0463   3.440882     14.736 -9.990e-29
    11.0473   3.440883     14.964 -9.990e-29
    11.0454   3.440722     15.189 -9.990e-29
    11.0491   3.440399     15.419 0.0000e+00
    11.0464   3.440562     15.662 0.0000e+00
    11.0482   3.441212     15.927 0.0000e+00
    11.0473   3.441051     16.205 0.0000e+00
    11.0491   3.441864     16.475 0.0000e+00
    11.0464   3.441541     16.733 0.0000e+00
    11.0492   3.442029     16.988 0.0000e+00
    11.0473   3.442192     17.248 0.0000e+00
    11.0501   3.442031     17.524 0.0000e+00
    11.0492   3.442032     17.809 0.0000e+00
    11.0519   3.442196     18.082 0.0000e+00
    11.0501   3.442035     18.337 0.0000e+00
    11.0492   3.442360     18.584 0.0000e+00
    11.0492   3.442524     18.831 0.0000e+00
    11.0520   3.442687     19.088 0.0000e+00
    11.0501   3.442689     19.346 0.0000e+00
    11.0520   3.443014     19.583 0.0000e+00
    11.0483   3.442691     19.793 0.0000e+00
    11.0520   3.442855     19.982 0.0000e+00
    11.0493   3.443667     20.155 0.0000e+00
    11.0511   3.443506     20.317 0.0000e+00
    11.0520   3.443832     20.467 0.0000e+00
    11.0520   3.444807     20.606 0.0000e+00
    11.0502   3.444646     20.737 0.0000e+00
    11.0520   3.444647     20.862 0.0000e+00
    11.0521   3.445297     20.983 0.0000e+00
    11.0539   3.447895     21.101 0.0000e+00
    11.0493   3.445787     21.216 0.0000e+00
    11.0530   3.446112     21.330 0.0000e+00
    11.0548   3.447574     21.442 0.0000e+00
    11.0548   3.447088     21.555 0.0000e+00
    11.0567   3.447576     21.666 0.0000e+00
    11.0558   3.448389     21.775 0.0000e+00
    11.0585   3.448552     21.882 0.0000e+00
    11.0576   3.449203     21.988 0.0000e+00
    11.0604   3.449042     22.093 0.0000e+00
    11.0586   3.448881     22.198 0.0000e+00
    11.0576   3.450180     22.303 0.0000e+00
    11.0650   3.450343     22.409 0.0000e+00
    11.0622   3.450345     22.514 0.0000e+00
    11.0650   3.450833     22.620 0.0000e+00
    11.0641   3.450509     22.727 0.0000e+00
    11.0669   3.451322     22.835 0.0000e+00
    11.0641   3.451810     22.945 0.0000e+00
    11.0678   3.452136     23.056 0.0000e+00
    11.0669   3.452137     23.169 0.0000e+00
    11.0687   3.453112     23.283 0.0000e+00
    11.0669   3.452789     23.400 0.0000e+00
    11.0687   3.452627     23.517 0.0000e+00
    11.0697   3.452791     23.632 0.0000e+00
    11.0706   3.453117     23.746 0.0000e+00
    11.0733   3.453442     23.858 0.0000e+00
    11.0706   3.453119     23.971 0.0000e+00
    11.0706   3.453283     24.082 0.0000e+00
    11.0706   3.453933     24.194 0.0000e+00
    11.0697   3.454746     24.304 0.0000e+00
    11.0697   3.455071     24.416 0.0000e+00
    11.0679   3.454424     24.528 0.0000e+00
    11.0688   3.455236     24.640 0.0000e+00
    11.0679   3.455400     24.751 0.0000e+00
    11.0688   3.455725     24.863 0.0000e+00
    11.0679   3.455889     24.973 0.0000e+00
    11.0707   3.455728     25.084 0.0000e+00
    11.0661   3.455891     25.195 0.0000e+00
    11.0716   3.456055     25.306 0.0000e+00
    11.0698   3.455894     25.417 0.0000e+00
    11.0716   3.456057     25.527 0.0000e+00
    11.0680   3.456059     25.637 0.0000e+00
    11.0689   3.456384     25.748 0.0000e+00
    11.0698   3.456223     25.860 0.0000e+00
    11.0698   3.456062     25.974 0.0000e+00
    11.0689   3.456388     26.090 0.0000e+00
    11.0680   3.456714     26.206 0.0000e+00
    11.0705   3.456768     26.320 0.0000e+00
    11.0729   3.456822     26.431 0.0000e+00
    11.0753   3.456874     26.538 0.0000e+00
    11.0735   3.456386     26.643 0.0000e+00
    11.0698   3.456709     26.745 0.0000e+00
    11.0680   3.457519     26.847 0.0000e+00
    11.0689   3.457193     26.949 0.0000e+00
    11.0661   3.457353     27.050 0.0000e+00
    11.0661   3.457352     27.153 0.0000e+00
    11.0680   3.456701     27.255 0.0000e+00
    11.0643   3.457187     27.357 0.0000e+00
    11.0652   3.457185     27.460 0.0000e+00
    11.0670   3.457670     27.563 0.0000e+00
    11.0670   3.457507     27.666 0.0000e+00
    11.0634   3.457343     27.771 0.0000e+00
    11.0652   3.457503     27.875 0.0000e+00
    11.0606   3.457664     27.978 0.0000e+00
    11.0597   3.457987     28.081 0.0000e+00
    11.0615   3.458473     28.184 0.0000e+00
    11.0606   3.458633     28.285 0.0000e+00
    11.0615   3.459119     28.387 0.0000e+00
    11.0624   3.457981     28.489 0.0000e+00
    11.0624   3.458629     28.591 0.0000e+00
    11.0615   3.458952     28.692 0.0000e+00
    11.0615   3.458788     28.792 0.0000e+00
    11.0605   3.458949     28.892 0.0000e+00
    11.0569   3.459434     28.990 0.0000e+00
    11.0624   3.459595     29.084 0.0000e+00
    11.0605   3.459431     29.172 0.0000e+00
    11.0605   3.460078     29.252 0.0000e+00
    11.0587   3.460077     29.324 0.0000e+00
    11.0642   3.459589     29.387 -9.990e-29
    11.0642   3.459587     29.438 -9.990e-29
    11.0660   3.459423     29.479 -9.990e-29
    11.0614   3.458448     29.512 -9.990e-29
    11.0678   3.458933     29.538 -9.990e-29
    11.0660   3.459094     29.558 -9.990e-29
    11.0669   3.459904     29.574 -9.990e-29
    11.0632   3.459415     29.586 -9.990e-29
    11.0641   3.459089     29.595 -9.990e-29
    11.0650   3.459250     29.603 -9.990e-29
    11.0659   3.459573     29.609 -9.990e-29
    11.0604   3.458111     29.614 -9.990e-29
    11.0687   3.460543     29.618 -9.990e-29
    11.0568   3.459731     29.621 -9.990e-29
    11.0632   3.460378     29.624 -9.990e-29
    11.0586   3.460863     29.626 -9.990e-29
    11.0604   3.461348     29.627 -9.990e-29
    11.0604   3.460698     29.627 -9.990e-29
    11.0622   3.460209     29.626 -9.990e-29
    11.0567   3.459883     29.626 -9.990e-29
    11.0595   3.459882     29.626 -9.990e-29
    11.0586   3.459880     29.626 -9.990e-29
    11.0613   3.459554     29.626 -9.990e-29
    11.0595   3.460364     29.625 -9.990e-29
    11.0659   3.460362     29.625 -9.990e-29
    11.0622   3.458413     29.624 -9.990e-29
    11.0686   3.458574     29.623 -9.990e-29
    11.0659   3.459222     29.622 -9.990e-29
    11.0631   3.460031     29.621 -9.990e-29
    11.0603   3.459381     29.619 -9.990e-29
    11.0622   3.459217     29.617 -9.990e-29
    11.0631   3.459540     29.614 -9.990e-29
    11.0622   3.459701     29.610 -9.990e-29
    11.0612   3.461160     29.605 -9.990e-29
    11.0594   3.459860     29.599 -9.990e-29
    11.0585   3.459371     29.591 -9.990e-29
    11.0585   3.460019     29.581 -9.990e-29
    11.0612   3.460180     29.568 -9.990e-29
    11.0603   3.459691     29.551 -9.990e-29
    11.0612   3.459203     29.529 -9.990e-29
    11.0658   3.459201     29.501 -9.990e-29
    11.0630   3.473804     29.465 -9.990e-29
    11.0493   3.456277     29.419 -9.990e-29
    11.0557   3.460170     29.364 0.0000e+00
    11.0566   3.460006     29.300 0.0000e+00
    11.0584   3.459031     29.230 0.0000e+00
    11.0584   3.459030     29.154 0.0000e+00
    11.0593   3.459028     29.072 0.0000e+00
    11.0602   3.459189     28.986 0.0000e+00
    11.0630   3.459025     28.899 0.0000e+00
    11.0648   3.458861     28.811 0.0000e+00
    11.0611   3.459184     28.722 0.0000e+00
    11.0593   3.458533     28.633 0.0000e+00
    11.0611   3.458856     28.544 0.0000e+00
    11.0611   3.458854     28.457 0.0000e+00
    11.0611   3.458366     28.368 0.0000e+00
    11.0602   3.458851     28.280 0.0000e+00
    11.0602   3.458201     28.191 0.0000e+00
    11.0620   3.458523     28.101 0.0000e+00
    11.0611   3.458846     28.011 0.0000e+00
    11.0620   3.458196     27.919 0.0000e+00
    11.0592   3.458194     27.823 0.0000e+00
    11.0620   3.458355     27.723 0.0000e+00
    11.0620   3.458191     27.620 0.0000e+00
    11.0629   3.457703     27.514 0.0000e+00
    11.0601   3.456890     27.401 0.0000e+00
    11.0656   3.457537     27.281 0.0000e+00
    11.0647   3.457860     27.151 0.0000e+00
    11.0638   3.457696     27.008 0.0000e+00
    11.0638   3.457370     26.851 0.0000e+00
    11.0638   3.458018     26.673 0.0000e+00
    11.0638   3.457691     26.469 0.0000e+00
    11.0638   3.457528     26.230 0.0000e+00
    11.0638   3.458013     25.964 0.0000e+00
    11.0619   3.458660     25.693 0.0000e+00
    11.0619   3.458821     25.419 0.0000e+00
    11.0610   3.457197     25.132 0.0000e+00
    11.0647   3.456870     24.833 0.0000e+00
    11.0656   3.456544     24.539 0.0000e+00
    11.0683   3.456380     24.254 0.0000e+00
    11.0701   3.455730     23.966 0.0000e+00
    11.0720   3.455890     23.680 0.0000e+00
    11.0674   3.456376     23.418 0.0000e+00
    11.0665   3.456374     23.183 0.0000e+00
    11.0683   3.456859     22.966 0.0000e+00
    11.0646   3.456695     22.777 0.0000e+00
    11.0674   3.456207     22.639 0.0000e+00
    11.0683   3.455881     22.568 -9.990e-29
    11.0683   3.456366     22.564 -9.990e-29
    11.0692   3.456365     22.617 -9.990e-29
    11.0701   3.456365     22.704 -9.990e-29
    11.0710   3.456364     22.821 -9.990e-29
    11.0719   3.456040     22.980 -9.990e-29
    11.0701   3.456364     23.181 -9.990e-29
    11.0683   3.456202     23.396 -9.990e-29
    11.0683   3.455715     23.598 -9.990e-29
    11.0710   3.454904     23.789 -9.990e-29
    11.0710   3.455877     23.971 -9.990e-29
    11.0701   3.455391     24.131 -9.990e-29
    11.0673   3.454741     24.269 -9.990e-29
    11.0683   3.454255     24.400 -9.990e-29
    11.0701   3.454417     24.537 -9.990e-29
    11.0692   3.455066     24.679 -9.990e-29
    11.0692   3.454092     24.808 -9.990e-29
    11.0701   3.454092     24.923 -9.990e-29
    11.0683   3.454579     25.037 -9.990e-29
    11.0692   3.454417     25.147 -9.990e-29
    11.0701   3.453281     25.233 -9.990e-29
    11.0701   3.453443     25.292 -9.990e-29
    11.0683   3.453281     25.331 -9.990e-29
    11.0683   3.454417     25.345 -9.990e-29
    11.0673   3.453281     25.308 -9.990e-29
    11.0747   3.452632     25.212 -9.990e-29
    11.0673   3.453443     25.057 -9.990e-29
    11.0692   3.452632     24.855 -9.990e-29
    11.0692   3.453281     24.631 -9.990e-29
    11.0673   3.452956     24.394 -9.990e-29
    11.0673   3.453281     24.133 -9.990e-29
    11.0683   3.452794     23.855 -9.990e-29
    11.0683   3.452469     23.578 -9.990e-29
    11.0692   3.452794     23.305 -9.990e-29
    11.0673   3.451820     23.038 -9.990e-29
    11.0692   3.451495     22.797 -9.990e-29
    11.0692   3.451820     22.587 0.0000e+00
    11.0692   3.451982     22.404 0.0000e+00
    11.0683   3.451982     22.241 0.0000e+00
    11.0683   3.451982     22.094 0.0000e+00
    11.0719   3.452307     21.959 0.0000e+00
    11.0683   3.452631     21.834 0.0000e+00
    11.0673   3.450684     21.717 0.0000e+00
    11.0655   3.450846     21.604 0.0000e+00
    11.0637   3.450846     21.496 0.0000e+00
    11.0637   3.450846     21.391 0.0000e+00
    11.0637   3.450846     21.289 0.0000e+00
    11.0600   3.450197     21.189 0.0000e+00
    11.0618   3.449061     21.091 0.0000e+00
    11.0609   3.448737     20.993 0.0000e+00
    11.0609   3.449710     20.896 0.0000e+00
    11.0618   3.448412     20.798 0.0000e+00
    11.0582   3.449548     20.699 0.0000e+00
    11.0609   3.450684     20.599 0.0000e+00
    11.0637   3.448250     20.497 0.0000e+00
    11.0618   3.447925     20.397 0.0000e+00
    11.0554   3.447114     20.299 0.0000e+00
    11.0554   3.447438     20.203 0.0000e+00
    11.0563   3.447438     20.109 0.0000e+00
    11.0609   3.447438     20.019 0.0000e+00
    11.0609   3.446627     19.932 0.0000e+00
    11.0563   3.445653     19.849 0.0000e+00
    11.0563   3.445816     19.770 0.0000e+00
    11.0527   3.445816     19.697 0.0000e+00
    11.0536   3.444355     19.632 0.0000e+00
    11.0554   3.445329     19.575 -9.990e-29
    11.0554   3.445653     19.530 -9.990e-29
    11.0517   3.444842     19.501 -9.990e-29
    11.0527   3.443219     19.490 -9.990e-29
